仪器类型:LRS-II型 激光喇曼/荧光光谱仪
样品名称:
操作人:
备注:
保存时间:2025年05月21日  02:00:21 PM
采集模式:0    //0,3--能量   1--透过率   2--吸光度
数据模式:0    //0--波长扫描    1--定点扫描
起始波长(nm):515.0
终止波长(nm):565.0
扫描间隔(nm):0.1
最大值:1173523.9
最小值:100.0
增益:14
负高压:8
采集次数:1000
数据段数:1
段1:    起点(nm):515.0     终点(nm):565.0


 波长(nm)    数值
  515.0      154.8
  515.1      163.1
  515.2      167.4
  515.3      163.3
  515.4      163.0
  515.5      164.3
  515.6      165.9
  515.7      174.6
  515.8      166.0
  515.9      178.0
  516.0      172.5
  516.1      171.7
  516.2      191.0
  516.3      164.5
  516.4      171.0
  516.5      172.5
  516.6      180.1
  516.7      189.5
  516.8      209.1
  516.9      196.9
  517.0      186.1
  517.1      197.0
  517.2      183.0
  517.3      200.2
  517.4      188.0
  517.5      198.5
  517.6      187.4
  517.7      205.7
  517.8      183.0
  517.9      208.5
  518.0      192.5
  518.1      188.2
  518.2      211.0
  518.3      168.5
  518.4      211.0
  518.5      194.4
  518.6      206.0
  518.7      225.4
  518.8      208.0
  518.9      209.8
  519.0      208.5
  519.1      223.3
  519.2      231.2
  519.3      230.7
  519.4      230.0
  519.5      230.9
  519.6      217.3
  519.7      234.6
  519.8      209.5
  519.9      250.5
  520.0      222.7
  520.1      244.5
  520.2      267.3
  520.3      287.3
  520.4      308.5
  520.5      354.1
  520.6      407.3
  520.7      470.4
  520.8      633.5
  520.9      917.0
  521.0      1203.2
  521.1      1250.5
  521.2      1311.9
  521.3      1076.3
  521.4      837.5
  521.5      648.6
  521.6      558.6
  521.7      441.5
  521.8      385.1
  521.9      363.0
  522.0      371.5
  522.1      355.1
  522.2      322.7
  522.3      299.0
  522.4      314.6
  522.5      299.0
  522.6      315.8
  522.7      308.5
  522.8      320.7
  522.9      324.0
  523.0      319.2
  523.1      322.0
  523.2      314.3
  523.3      334.5
  523.4      351.5
  523.5      361.2
  523.6      361.2
  523.7      352.2
  523.8      370.0
  523.9      343.0
  524.0      374.0
  524.1      380.3
  524.2      358.0
  524.3      403.0
  524.4      391.1
  524.5      447.2
  524.6      459.2
  524.7      474.8
  524.8      564.6
  524.9      710.2
  525.0      890.7
  525.1      1040.1
  525.2      1065.5
  525.3      1100.6
  525.4      961.3
  525.5      765.9
  525.6      609.7
  525.7      617.5
  525.8      599.0
  525.9      610.0
  526.0      600.3
  526.1      611.2
  526.2      609.5
  526.3      619.5
  526.4      638.7
  526.5      661.6
  526.6      650.1
  526.7      673.0
  526.8      682.9
  526.9      740.2
  527.0      757.5
  527.1      758.7
  527.2      778.5
  527.3      806.4
  527.4      888.6
  527.5      980.1
  527.6      1131.0
  527.7      1366.3
  527.8      1570.3
  527.9      1696.7
  528.0      1636.0
  528.1      1587.4
  528.2      1380.8
  528.3      1216.2
  528.4      1131.5
  528.5      1086.8
  528.6      1042.7
  528.7      1050.5
  528.8      1020.0
  528.9      1026.9
  529.0      1040.5
  529.1      1026.8
  529.2      1058.0
  529.3      1083.3
  529.4      1077.5
  529.5      1121.1
  529.6      1093.5
  529.7      1116.1
  529.8      1124.7
  529.9      1169.5
  530.0      1134.5
  530.1      1204.0
  530.2      1180.9
  530.3      1223.6
  530.4      1230.0
  530.5      1230.2
  530.6      1217.3
  530.7      1231.5
  530.8      1246.7
  530.9      1290.0
  531.0      1324.7
  531.1      1338.3
  531.2      1379.0
  531.3      1484.8
  531.4      1486.5
  531.5      1626.0
  531.6      1599.2
  531.7      1672.2
  531.8      1709.7
  531.9      1774.5
  532.0      1857.0
  532.1      1950.4
  532.2      2038.4
  532.3      2137.6
  532.4      2242.7
  532.5      2441.4
  532.6      2662.7
  532.7      2936.8
  532.8      3227.8
  532.9      3614.4
  533.0      4041.8
  533.1      4540.3
  533.2      5190.6
  533.3      6017.1
  533.4      7190.5
  533.5      8565.2
  533.6      9993.4
  533.7      13815.5
  533.8      27329.4
  533.9      160878.3
  534.0      543878.3
  534.1      970742.5
  534.2      1101649.0
  534.3      1173523.9
  534.4      819491.0
  534.5      340206.6
  534.6      23715.5
  534.7      26162.0
  534.8      10417.1
  534.9      8943.2
  535.0      7426.6
  535.1      6249.4
  535.2      5316.4
  535.3      4589.5
  535.4      4106.4
  535.5      3738.0
  535.6      3407.7
  535.7      3088.2
  535.8      2804.3
  535.9      2616.6
  536.0      2360.2
  536.1      2251.7
  536.2      2101.0
  536.3      2058.3
  536.4      1879.1
  536.5      1786.7
  536.6      1743.1
  536.7      1663.1
  536.8      1626.7
  536.9      1554.0
  537.0      1492.1
  537.1      1421.6
  537.2      1403.1
  537.3      1361.4
  537.4      1333.4
  537.5      1283.5
  537.6      1277.0
  537.7      1225.5
  537.8      1228.2
  537.9      1182.8
  538.0      1198.5
  538.1      1201.4
  538.2      1236.0
  538.3      1228.5
  538.4      1255.0
  538.5      1240.9
  538.6      1268.7
  538.7      1246.0
  538.8      1267.4
  538.9      1236.7
  539.0      1206.3
  539.1      1217.9
  539.2      1200.0
  539.3      1230.1
  539.4      1220.5
  539.5      1220.8
  539.6      1252.8
  539.7      1307.3
  539.8      1304.5
  539.9      1365.0
  540.0      1380.4
  540.1      1490.3
  540.2      1813.4
  540.3      2262.7
  540.4      2817.3
  540.5      2926.5
  540.6      3121.0
  540.7      2787.3
  540.8      2298.0
  540.9      1845.8
  541.0      1573.1
  541.1      1426.2
  541.2      1440.5
  541.3      1277.0
  541.4      1295.5
  541.5      1211.9
  541.6      1214.5
  541.7      1180.3
  541.8      1135.2
  541.9      1131.0
  542.0      1086.5
  542.1      1070.2
  542.2      1051.5
  542.3      1035.3
  542.4      1088.7
  542.5      1075.4
  542.6      1093.3
  542.7      1189.9
  542.8      1372.1
  542.9      1597.3
  543.0      1958.7
  543.1      2461.0
  543.2      2969.1
  543.3      2896.0
  543.4      2810.7
  543.5      2209.5
  543.6      1643.4
  543.7      1224.4
  543.8      961.3
  543.9      832.8
  544.0      766.7
  544.1      704.4
  544.2      650.6
  544.3      598.6
  544.4      569.5
  544.5      559.9
  544.6      568.0
  544.7      564.8
  544.8      547.2
  544.9      527.2
  545.0      523.0
  545.1      508.3
  545.2      487.4
  545.3      475.0
  545.4      479.0
  545.5      470.0
  545.6      483.5
  545.7      482.1
  545.8      485.0
  545.9      488.1
  546.0      483.7
  546.1      494.3
  546.2      488.1
  546.3      516.5
  546.4      489.5
  546.5      516.5
  546.6      529.2
  546.7      658.7
  546.8      831.2
  546.9      981.8
  547.0      1165.7
  547.1      1470.6
  547.2      1915.2
  547.3      2607.2
  547.4      3641.2
  547.5      5055.0
  547.6      6306.5
  547.7      6077.5
  547.8      5766.6
  547.9      4064.1
  548.0      2506.5
  548.1      1601.1
  548.2      1275.7
  548.3      1047.1
  548.4      823.5
  548.5      657.0
  548.6      559.0
  548.7      483.8
  548.8      426.2
  548.9      409.5
  549.0      381.9
  549.1      396.0
  549.2      384.7
  549.3      383.0
  549.4      376.0
  549.5      370.6
  549.6      369.5
  549.7      391.6
  549.8      367.1
  549.9      384.0
  550.0      344.5
  550.1      364.5
  550.2      337.3
  550.3      357.0
  550.4      342.7
  550.5      347.5
  550.6      343.1
  550.7      344.0
  550.8      320.0
  550.9      326.6
  551.0      321.5
  551.1      319.4
  551.2      330.0
  551.3      331.0
  551.4      335.9
  551.5      320.3
  551.6      324.0
  551.7      314.3
  551.8      344.0
  551.9      330.3
  552.0      333.2
  552.1      327.0
  552.2      305.0
  552.3      320.5
  552.4      308.3
  552.5      300.2
  552.6      300.8
  552.7      306.0
  552.8      317.2
  552.9      305.9
  553.0      298.9
  553.1      292.0
  553.2      278.6
  553.3      298.5
  553.4      266.5
  553.5      284.4
  553.6      289.2
  553.7      255.5
  553.8      314.5
  553.9      246.5
  554.0      302.0
  554.1      257.5
  554.2      289.5
  554.3      267.0
  554.4      274.0
  554.5      249.7
  554.6      254.0
  554.7      260.9
  554.8      269.0
  554.9      276.1
  555.0      272.0
  555.1      258.5
  555.2      260.0
  555.3      256.0
  555.4      258.3
  555.5      275.9
  555.6      275.0
  555.7      274.5
  555.8      282.0
  555.9      280.5
  556.0      314.5
  556.1      344.5
  556.2      375.0
  556.3      402.1
  556.4      436.1
  556.5      478.1
  556.6      539.7
  556.7      592.4
  556.8      626.2
  556.9      608.5
  557.0      611.1
  557.1      577.6
  557.2      555.0
  557.3      555.5
  557.4      561.4
  557.5      586.5
  557.6      596.7
  557.7      602.5
  557.8      581.2
  557.9      553.5
  558.0      506.5
  558.1      470.8
  558.2      428.2
  558.3      389.1
  558.4      345.3
  558.5      297.4
  558.6      287.5
  558.7      266.6
  558.8      246.2
  558.9      244.0
  559.0      239.0
  559.1      239.5
  559.2      239.0
  559.3      214.4
  559.4      209.6
  559.5      189.5
  559.6      201.0
  559.7      191.3
  559.8      198.0
  559.9      196.2
  560.0      191.6
  560.1      182.9
  560.2      184.6
  560.3      199.4
  560.4      193.5
  560.5      187.0
  560.6      180.5
  560.7      180.6
  560.8      177.0
  560.9      197.1
  561.0      179.0
  561.1      187.0
  561.2      171.6
  561.3      180.8
  561.4      188.8
  561.5      180.0
  561.6      175.9
  561.7      171.0
  561.8      167.7
  561.9      171.0
  562.0      186.5
  562.1      174.0
  562.2      178.3
  562.3      163.8
  562.4      165.5
  562.5      155.9
  562.6      170.4
  562.7      162.5
  562.8      173.5
  562.9      161.0
  563.0      166.5
  563.1      155.5
  563.2      156.2
  563.3      161.3
  563.4      155.0
  563.5      167.2
  563.6      150.0
  563.7      159.5
  563.8      157.0
  563.9      159.5
  564.0      172.4
  564.1      159.0
  564.2      155.2
  564.3      146.5
  564.4      148.6
  564.5      143.0
  564.6      153.0
  564.7      137.0
  564.8      170.0
  564.9      141.5
  565.0      158.7
