仪器类型:LRS-II型 激光喇曼/荧光光谱仪
样品名称:
操作人:
备注:
保存时间:2025年05月21日  12:08:10 PM
采集模式:0    //0,3--能量   1--透过率   2--吸光度
数据模式:0    //0--波长扫描    1--定点扫描
起始波长(nm):515.0
终止波长(nm):563.5
扫描间隔(nm):0.1
最大值:1143224.6
最小值:100.0
增益:14
负高压:8
采集次数:1000
数据段数:1
段1:    起点(nm):515.0     终点(nm):563.5


 波长(nm)    数值
  515.0      170.4
  515.1      176.5
  515.2      162.0
  515.3      167.0
  515.4      164.8
  515.5      161.0
  515.6      162.5
  515.7      161.5
  515.8      173.3
  515.9      171.0
  516.0      180.0
  516.1      177.1
  516.2      188.8
  516.3      189.0
  516.4      182.7
  516.5      180.0
  516.6      176.0
  516.7      172.5
  516.8      196.0
  516.9      167.5
  517.0      196.5
  517.1      181.1
  517.2      197.6
  517.3      196.2
  517.4      202.7
  517.5      199.5
  517.6      195.4
  517.7      201.0
  517.8      197.4
  517.9      200.0
  518.0      204.8
  518.1      201.6
  518.2      197.1
  518.3      207.5
  518.4      198.8
  518.5      218.4
  518.6      214.5
  518.7      216.4
  518.8      223.0
  518.9      193.0
  519.0      227.0
  519.1      205.2
  519.2      216.8
  519.3      217.8
  519.4      218.0
  519.5      234.8
  519.6      225.5
  519.7      237.8
  519.8      215.8
  519.9      230.5
  520.0      227.6
  520.1      227.8
  520.2      242.0
  520.3      241.5
  520.4      249.1
  520.5      252.0
  520.6      259.0
  520.7      255.5
  520.8      305.5
  520.9      293.4
  521.0      336.4
  521.1      372.7
  521.2      441.2
  521.3      590.1
  521.4      845.0
  521.5      1119.0
  521.6      1315.5
  521.7      1223.0
  521.8      1147.3
  521.9      880.3
  522.0      663.0
  522.1      533.2
  522.2      450.4
  522.3      396.2
  522.4      357.6
  522.5      346.1
  522.6      347.4
  522.7      331.7
  522.8      309.9
  522.9      311.0
  523.0      320.2
  523.1      321.0
  523.2      329.4
  523.3      333.0
  523.4      330.3
  523.5      333.1
  523.6      304.8
  523.7      311.5
  523.8      340.1
  523.9      356.5
  524.0      342.3
  524.1      362.0
  524.2      349.8
  524.3      373.5
  524.4      363.5
  524.5      376.3
  524.6      390.1
  524.7      407.1
  524.8      419.4
  524.9      433.0
  525.0      471.6
  525.1      520.7
  525.2      603.0
  525.3      734.4
  525.4      931.8
  525.5      1081.8
  525.6      1065.5
  525.7      1025.6
  525.8      913.9
  525.9      777.0
  526.0      661.2
  526.1      643.5
  526.2      613.0
  526.3      620.9
  526.4      612.5
  526.5      618.5
  526.6      602.0
  526.7      632.5
  526.8      605.6
  526.9      630.4
  527.0      652.5
  527.1      676.6
  527.2      679.2
  527.3      710.9
  527.4      737.9
  527.5      764.7
  527.6      789.9
  527.7      862.8
  527.8      966.7
  527.9      1115.8
  528.0      1322.4
  528.1      1566.2
  528.2      1635.0
  528.3      1700.1
  528.4      1515.5
  528.5      1317.5
  528.6      1151.8
  528.7      1135.5
  528.8      1040.5
  528.9      1082.5
  529.0      1022.0
  529.1      1024.9
  529.2      1026.0
  529.3      1038.8
  529.4      1023.5
  529.5      1027.8
  529.6      1035.1
  529.7      1035.5
  529.8      1081.0
  529.9      1076.7
  530.0      1110.8
  530.1      1150.9
  530.2      1169.6
  530.3      1195.0
  530.4      1203.7
  530.5      1194.4
  530.6      1233.0
  530.7      1217.4
  530.8      1269.7
  530.9      1240.0
  531.0      1318.5
  531.1      1290.6
  531.2      1337.0
  531.3      1312.6
  531.4      1353.7
  531.5      1403.8
  531.6      1462.8
  531.7      1506.7
  531.8      1570.9
  531.9      1651.3
  532.0      1641.0
  532.1      1740.5
  532.2      1750.4
  532.3      1871.5
  532.4      1969.8
  532.5      2115.7
  532.6      2232.9
  532.7      2412.2
  532.8      2650.4
  532.9      2892.1
  533.0      3148.7
  533.1      3418.5
  533.2      3793.9
  533.3      4245.8
  533.4      4899.7
  533.5      5639.6
  533.6      6570.7
  533.7      7687.0
  533.8      8986.8
  533.9      10283.3
  534.0      15851.5
  534.1      34537.8
  534.2      223638.3
  534.3      630471.3
  534.4      1025887.5
  534.5      1114124.0
  534.6      1143224.6
  534.7      783408.9
  534.8      313568.2
  534.9      24418.3
  535.0      25923.0
  535.1      10529.3
  535.2      9080.1
  535.3      7486.3
  535.4      6331.0
  535.5      5512.8
  535.6      4848.2
  535.7      4299.8
  535.8      3845.7
  535.9      3500.4
  536.0      3162.7
  536.1      2908.0
  536.2      2661.1
  536.3      2461.3
  536.4      2351.0
  536.5      2244.2
  536.6      2086.5
  536.7      1967.5
  536.8      1851.8
  536.9      1780.3
  537.0      1683.5
  537.1      1658.9
  537.2      1553.7
  537.3      1521.0
  537.4      1494.1
  537.5      1450.3
  537.6      1401.1
  537.7      1374.7
  537.8      1321.2
  537.9      1281.1
  538.0      1257.5
  538.1      1245.7
  538.2      1272.5
  538.3      1184.5
  538.4      1194.7
  538.5      1164.1
  538.6      1155.5
  538.7      1206.0
  538.8      1195.2
  538.9      1231.8
  539.0      1227.3
  539.1      1244.5
  539.2      1224.5
  539.3      1248.0
  539.4      1192.0
  539.5      1212.5
  539.6      1189.2
  539.7      1195.5
  539.8      1192.3
  539.9      1194.0
  540.0      1206.5
  540.1      1247.7
  540.2      1274.7
  540.3      1307.8
  540.4      1334.2
  540.5      1429.0
  540.6      1625.4
  540.7      2034.4
  540.8      2600.5
  540.9      3081.2
  541.0      3045.0
  541.1      2961.5
  541.2      2485.8
  541.3      2002.3
  541.4      1632.5
  541.5      1437.9
  541.6      1353.3
  541.7      1305.8
  541.8      1272.9
  541.9      1234.4
  542.0      1197.3
  542.1      1147.9
  542.2      1118.7
  542.3      1105.1
  542.4      1091.5
  542.5      1086.1
  542.6      1057.6
  542.7      1022.5
  542.8      1034.7
  542.9      1043.3
  543.0      1077.9
  543.1      1113.1
  543.2      1253.0
  543.3      1405.9
  543.4      1663.4
  543.5      2035.6
  543.6      2570.5
  543.7      3063.1
  543.8      2963.5
  543.9      2857.1
  544.0      2183.5
  544.1      1569.3
  544.2      1152.1
  544.3      919.4
  544.4      798.6
  544.5      721.6
  544.6      656.4
  544.7      593.7
  544.8      588.5
  544.9      538.9
  545.0      562.6
  545.1      538.5
  545.2      581.0
  545.3      532.5
  545.4      554.8
  545.5      527.6
  545.6      506.7
  545.7      502.0
  545.8      471.5
  545.9      488.0
  546.0      481.6
  546.1      473.5
  546.2      499.0
  546.3      488.8
  546.4      490.5
  546.5      454.0
  546.6      466.0
  546.7      466.9
  546.8      482.3
  546.9      475.5
  547.0      490.3
  547.1      564.4
  547.2      673.4
  547.3      767.1
  547.4      908.7
  547.5      1083.9
  547.6      1349.7
  547.7      1703.0
  547.8      2309.4
  547.9      3192.4
  548.0      4482.7
  548.1      5863.8
  548.2      6131.0
  548.3      6316.1
  548.4      4842.5
  548.5      3118.4
  548.6      1909.5
  548.7      1385.9
  548.8      1140.5
  548.9      932.4
  549.0      739.2
  549.1      616.0
  549.2      513.0
  549.3      433.4
  549.4      420.5
  549.5      420.6
  549.6      421.0
  549.7      426.5
  549.8      395.9
  549.9      398.0
  550.0      382.5
  550.1      396.7
  550.2      377.1
  550.3      384.0
  550.4      364.1
  550.5      379.0
  550.6      384.3
  550.7      372.0
  550.8      364.1
  550.9      357.5
  551.0      336.8
  551.1      353.6
  551.2      358.2
  551.3      365.4
  551.4      340.0
  551.5      345.5
  551.6      311.5
  551.7      316.8
  551.8      322.5
  551.9      317.9
  552.0      336.8
  552.1      331.0
  552.2      344.1
  552.3      331.5
  552.4      320.7
  552.5      316.0
  552.6      315.6
  552.7      311.0
  552.8      319.5
  552.9      304.2
  553.0      310.0
  553.1      290.3
  553.2      295.0
  553.3      281.1
  553.4      286.0
  553.5      294.2
  553.6      292.9
  553.7      291.3
  553.8      299.5
  553.9      295.9
  554.0      303.5
  554.1      279.5
  554.2      305.0
  554.3      254.5
  554.4      304.0
  554.5      289.4
  554.6      303.5
  554.7      301.1
  554.8      268.7
  554.9      277.5
  555.0      268.7
  555.1      282.0
  555.2      282.7
  555.3      263.8
  555.4      275.4
  555.5      271.5
  555.6      295.2
  555.7      289.0
  555.8      277.5
  555.9      268.9
  556.0      277.5
  556.1      264.5
  556.2      277.5
  556.3      284.1
  556.4      297.8
  556.5      321.1
  556.6      328.0
  556.7      349.6
  556.8      382.1
  556.9      459.8
  557.0      516.9
  557.1      542.3
  557.2      587.1
  557.3      577.0
  557.4      631.7
  557.5      599.1
  557.6      609.5
  557.7      589.2
  557.8      586.0
  557.9      572.1
  558.0      579.0
  558.1      625.0
  558.2      575.0
  558.3      580.3
  558.4      567.7
  558.5      560.7
  558.6      501.5
  558.7      431.5
  558.8      389.0
  558.9      348.8
  559.0      315.3
  559.1      292.8
  559.2      268.9
  559.3      246.3
  559.4      230.4
  559.5      219.2
  559.6      226.4
  559.7      222.5
  559.8      239.2
  559.9      219.1
  560.0      213.2
  560.1      211.0
  560.2      197.2
  560.3      201.5
  560.4      183.2
  560.5      187.5
  560.6      179.8
  560.7      179.0
  560.8      170.6
  560.9      183.2
  561.0      194.0
  561.1      191.5
  561.2      191.6
  561.3      188.7
  561.4      172.9
  561.5      178.5
  561.6      157.0
  561.7      176.1
  561.8      159.0
  561.9      198.0
  562.0      192.6
  562.1      204.2
  562.2      186.1
  562.3      175.5
  562.4      170.6
  562.5      163.5
  562.6      164.0
  562.7      169.4
  562.8      180.4
  562.9      176.0
  563.0      181.7
  563.1      175.4
  563.2      180.0
  563.3      174.0
  563.4      181.9
  563.5      170.2
