仪器类型:LRS-II型 激光喇曼/荧光光谱仪
样品名称:
操作人:
备注:
保存时间:2025年05月21日  09:46:00 AM
采集模式:0    //0,3--能量   1--透过率   2--吸光度
数据模式:0    //0--波长扫描    1--定点扫描
起始波长(nm):510.0
终止波长(nm):560.0
扫描间隔(nm):0.1
最大值:1799923.7
最小值:0.0
增益:14
负高压:8
采集次数:800
数据段数:1
段1:    起点(nm):510.0     终点(nm):560.0


 波长(nm)    数值
  510.0      927.9
  510.1      899.6
  510.2      866.6
  510.3      863.0
  510.4      878.1
  510.5      868.5
  510.6      879.9
  510.7      876.0
  510.8      895.1
  510.9      899.5
  511.0      933.8
  511.1      922.5
  511.2      915.9
  511.3      918.0
  511.4      908.5
  511.5      901.0
  511.6      940.0
  511.7      937.7
  511.8      955.0
  511.9      980.0
  512.0      974.7
  512.1      977.0
  512.2      951.5
  512.3      979.5
  512.4      942.8
  512.5      994.0
  512.6      955.0
  512.7      976.9
  512.8      946.0
  512.9      956.8
  513.0      946.0
  513.1      1001.1
  513.2      1052.5
  513.3      1110.8
  513.4      1101.3
  513.5      1109.0
  513.6      1121.1
  513.7      1181.6
  513.8      1266.0
  513.9      1343.6
  514.0      1390.8
  514.1      1417.4
  514.2      1459.8
  514.3      1550.2
  514.4      1614.4
  514.5      1652.3
  514.6      1680.5
  514.7      1728.4
  514.8      1729.5
  514.9      1758.0
  515.0      1753.2
  515.1      1773.1
  515.2      1767.0
  515.3      1730.3
  515.4      1770.0
  515.5      1697.5
  515.6      1740.5
  515.7      1723.5
  515.8      1693.0
  515.9      1697.6
  516.0      1660.8
  516.1      1665.5
  516.2      1630.9
  516.3      1663.5
  516.4      1655.0
  516.5      1662.5
  516.6      1692.5
  516.7      1703.3
  516.8      1664.5
  516.9      1743.0
  517.0      1716.9
  517.1      1734.3
  517.2      1763.5
  517.3      1740.5
  517.4      1767.5
  517.5      1795.8
  517.6      1780.0
  517.7      1808.0
  517.8      1829.7
  517.9      1780.5
  518.0      1867.0
  518.1      1801.8
  518.2      1867.9
  518.3      1890.8
  518.4      1946.0
  518.5      1905.0
  518.6      1923.0
  518.7      1910.5
  518.8      1938.4
  518.9      1992.4
  519.0      1999.3
  519.1      2050.7
  519.2      2030.0
  519.3      2088.0
  519.4      2072.0
  519.5      2111.7
  519.6      2140.8
  519.7      2152.5
  519.8      2147.9
  519.9      2161.0
  520.0      2179.2
  520.1      2179.5
  520.2      2234.0
  520.3      2262.5
  520.4      2320.1
  520.5      2277.0
  520.6      2293.0
  520.7      2223.4
  520.8      2320.5
  520.9      2428.4
  521.0      2462.0
  521.1      2461.5
  521.2      2507.1
  521.3      2573.0
  521.4      2622.0
  521.5      2625.3
  521.6      2680.3
  521.7      2744.2
  521.8      2794.9
  521.9      2887.0
  522.0      2849.9
  522.1      2927.1
  522.2      3110.1
  522.3      3333.1
  522.4      3527.4
  522.5      3854.6
  522.6      4291.4
  522.7      5263.3
  522.8      6924.4
  522.9      8892.0
  523.0      9303.0
  523.1      10162.5
  523.2      10074.4
  523.3      10095.9
  523.4      9670.9
  523.5      9156.4
  523.6      8663.5
  523.7      8220.1
  523.8      7758.7
  523.9      7235.2
  524.0      6565.2
  524.1      5786.1
  524.2      5136.3
  524.3      4658.9
  524.4      4403.6
  524.5      4237.5
  524.6      4187.7
  524.7      4129.2
  524.8      4138.4
  524.9      4109.5
  525.0      4202.0
  525.1      4173.4
  525.2      4225.4
  525.3      4288.9
  525.4      4343.1
  525.5      4441.8
  525.6      4541.1
  525.7      4644.9
  525.8      4650.6
  525.9      4698.2
  526.0      4846.6
  526.1      5059.6
  526.2      5260.3
  526.3      5458.0
  526.4      5688.1
  526.5      6064.5
  526.6      6782.5
  526.7      8364.4
  526.8      10474.7
  526.9      12458.2
  527.0      13563.2
  527.1      13630.0
  527.2      13578.9
  527.3      13065.9
  527.4      12597.3
  527.5      12161.1
  527.6      11811.8
  527.7      11501.3
  527.8      11090.6
  527.9      10483.1
  528.0      9862.0
  528.1      9192.8
  528.2      8634.8
  528.3      8688.0
  528.4      8636.3
  528.5      8764.6
  528.6      8871.2
  528.7      9179.6
  528.8      9526.7
  528.9      9894.4
  529.0      10371.8
  529.1      11029.3
  529.2      11902.4
  529.3      13309.3
  529.4      15707.0
  529.5      18527.9
  529.6      20569.8
  529.7      20787.0
  529.8      20972.6
  529.9      20529.6
  530.0      19974.3
  530.1      19506.9
  530.2      18842.9
  530.3      18276.3
  530.4      17677.9
  530.5      17283.9
  530.6      16561.2
  530.7      15670.1
  530.8      14831.3
  530.9      14346.9
  531.0      14141.7
  531.1      14035.5
  531.2      13911.4
  531.3      14023.1
  531.4      14204.9
  531.5      14371.2
  531.6      14327.7
  531.7      14436.7
  531.8      14666.6
  531.9      14933.3
  532.0      15159.5
  532.1      15294.5
  532.2      15540.7
  532.3      15793.4
  532.4      15857.0
  532.5      16081.1
  532.6      16387.6
  532.7      16918.0
  532.8      17210.9
  532.9      17522.5
  533.0      17794.0
  533.1      18289.8
  533.2      18852.0
  533.3      19553.2
  533.4      20142.0
  533.5      20865.8
  533.6      21674.9
  533.7      22814.1
  533.8      23894.9
  533.9      24933.8
  534.0      26966.9
  534.1      29790.2
  534.2      32633.7
  534.3      35071.1
  534.4      38017.2
  534.5      41621.8
  534.6      45650.6
  534.7      50611.0
  534.8      56491.4
  534.9      63079.3
  535.0      70275.7
  535.1      78005.5
  535.2      85416.6
  535.3      186961.1
  535.4      631011.3
  535.5      1278849.0
  535.6      1739790.1
  535.7      1780658.5
  535.8      1799923.7
  535.9      1763713.1
  536.0      1728861.4
  536.1      1698399.9
  536.2      1675852.5
  536.3      1652654.4
  536.4      1635227.4
  536.5      1625909.8
  536.6      1611839.5
  536.7      1396185.6
  536.8      849260.1
  536.9      302382.0
  537.0      141203.0
  537.1      70356.8
  537.2      64569.4
  537.3      56728.0
  537.4      50724.4
  537.5      45903.6
  537.6      41838.1
  537.7      38369.7
  537.8      35453.8
  537.9      33171.2
  538.0      30986.4
  538.1      29014.2
  538.2      27269.1
  538.3      25868.0
  538.4      24527.5
  538.5      23471.3
  538.6      22498.4
  538.7      21647.1
  538.8      20963.5
  538.9      20393.2
  539.0      19744.6
  539.1      19086.2
  539.2      18581.2
  539.3      18247.5
  539.4      17867.0
  539.5      17603.6
  539.6      17304.8
  539.7      17369.5
  539.8      17097.5
  539.9      17151.9
  540.0      17135.5
  540.1      17177.5
  540.2      17098.0
  540.3      17007.4
  540.4      17043.0
  540.5      16914.9
  540.6      17017.0
  540.7      17022.8
  540.8      17052.7
  540.9      17182.4
  541.0      17293.2
  541.1      17535.7
  541.2      17833.1
  541.3      18368.9
  541.4      19072.8
  541.5      20574.0
  541.6      23570.4
  541.7      28509.4
  541.8      33748.7
  541.9      37468.3
  542.0      37729.0
  542.1      37998.8
  542.2      36517.2
  542.3      34917.5
  542.4      33322.7
  542.5      31577.6
  542.6      29966.6
  542.7      28412.9
  542.8      26721.2
  542.9      24621.1
  543.0      22181.0
  543.1      19910.7
  543.2      18316.5
  543.3      17414.4
  543.4      16782.9
  543.5      16343.6
  543.6      16061.4
  543.7      15674.0
  543.8      15788.5
  543.9      15695.3
  544.0      16121.8
  544.1      16307.2
  544.2      17343.3
  544.3      19546.7
  544.4      23733.0
  544.5      28895.0
  544.6      33969.8
  544.7      37028.3
  544.8      36651.0
  544.9      36048.4
  545.0      33706.7
  545.1      31317.5
  545.2      29270.1
  545.3      26891.3
  545.4      24660.0
  545.5      22365.2
  545.6      20010.6
  545.7      17144.3
  545.8      14182.6
  545.9      11723.3
  546.0      10096.5
  546.1      9067.0
  546.2      8403.5
  546.3      7864.1
  546.4      7487.9
  546.5      7179.3
  546.6      7022.1
  546.7      6848.7
  546.8      6692.5
  546.9      6714.5
  547.0      6657.4
  547.1      6686.5
  547.2      6590.9
  547.3      6532.4
  547.4      6430.7
  547.5      6588.0
  547.6      6554.1
  547.7      6763.7
  547.8      6866.6
  547.9      7162.3
  548.0      7620.3
  548.1      8515.1
  548.2      9515.9
  548.3      10914.3
  548.4      12628.2
  548.5      15174.4
  548.6      18613.4
  548.7      23442.9
  548.8      30024.8
  548.9      38072.3
  549.0      45023.7
  549.1      46066.0
  549.2      47037.6
  549.3      44245.0
  549.4      41375.7
  549.5      38414.3
  549.6      35531.9
  549.7      32307.3
  549.8      29362.0
  549.9      26174.1
  550.0      22540.0
  550.1      18077.4
  550.2      13822.8
  550.3      10679.5
  550.4      8891.1
  550.5      7762.5
  550.6      6869.2
  550.7      6295.1
  550.8      5868.9
  550.9      5580.6
  551.0      5447.5
  551.1      5273.6
  551.2      5146.1
  551.3      5000.0
  551.4      5038.5
  551.5      4875.6
  551.6      4762.4
  551.7      4712.5
  551.8      4692.1
  551.9      4642.8
  552.0      4610.7
  552.1      4527.9
  552.2      4585.0
  552.3      4407.0
  552.4      4452.3
  552.5      4417.0
  552.6      4413.5
  552.7      4385.8
  552.8      4329.8
  552.9      4233.5
  553.0      4246.9
  553.1      4177.4
  553.2      4163.4
  553.3      4102.1
  553.4      4152.0
  553.5      4043.0
  553.6      4062.7
  553.7      3965.8
  553.8      3929.5
  553.9      3955.1
  554.0      3978.7
  554.1      4019.2
  554.2      3971.1
  554.3      3923.7
  554.4      3872.5
  554.5      3832.1
  554.6      3761.1
  554.7      3731.3
  554.8      3740.5
  554.9      3678.1
  555.0      3673.0
  555.1      3589.5
  555.2      3660.5
  555.3      3632.4
  555.4      3653.5
  555.5      3623.8
  555.6      3532.7
  555.7      3512.0
  555.8      3445.5
  555.9      3517.9
  556.0      3440.5
  556.1      3500.7
  556.2      3385.6
  556.3      3400.0
  556.4      3396.8
  556.5      3392.1
  556.6      3399.0
  556.7      3384.3
  556.8      3431.3
  556.9      3506.9
  557.0      3564.9
  557.1      3694.0
  557.2      3755.1
  557.3      3931.9
  557.4      4179.2
  557.5      4584.6
  557.6      4924.2
  557.7      5474.1
  557.8      6193.3
  557.9      7140.3
  558.0      7972.2
  558.1      8710.9
  558.2      9294.9
  558.3      9813.9
  558.4      10060.2
  558.5      10227.6
  558.6      10338.4
  558.7      10507.8
  558.8      10710.6
  558.9      11113.2
  559.0      11170.5
  559.1      11359.5
  559.2      11178.4
  559.3      10813.7
  559.4      10192.7
  559.5      9479.2
  559.6      8856.8
  559.7      8226.3
  559.8      7610.0
  559.9      6960.1
  560.0      6343.8
